ARQUIVO DE MEDIDA
Usuário: ivan
Amostra: Nenhuma
Comentário: Teste #3: terceira medida com Si, potência do globar ampliada para 4.3V * 27V
Parâmetros: vmode 1 sen 27 acgain 0 tc 10 27.000000 4.300000
Magnitude (mV)	Comprimento de onda(nm)
0.200000	400.000000
0.300000	420.012718
0.300000	439.997501
0.200000	459.995358
0.200000	480.005270
0.200000	499.993137
0.400000	519.991076
0.300000	539.998050
0.200000	560.013012
0.200000	580.001999
0.500000	599.996948
0.700000	619.996792
0.600000	640.000457
0.600000	660.006862
1.300000	680.014916
1.700000	700.023520
1.700000	720.031570
2.000000	740.037949
2.900000	760.041537
3.000000	780.041203
3.400000	800.035809
4.300000	820.024210
5.000000	840.037447
5.400000	860.042031
6.200000	880.036787
7.300000	900.052525
8.000000	920.055921
8.600000	940.045774
9.600000	960.052644
10.000000	980.043389
9.800000	1000.057995
9.800000	1020.039170
9.000000	1040.008556
7.800000	1060.031768
6.400000	1080.042648
5.100000	1100.040962
4.000000	1120.026478
2.900000	1139.998964
1.900000	1160.023821
1.000000	1180.035092
0.300000	1200.032545
0.100000	1220.015944
0.400000	1239.985056
0.500000	1260.005048
0.500000	1280.010187
0.300000	1300.000238
0.300000	1319.974965
0.700000	1339.999333
1.100000	1360.007803
1.300000	1380.000136
1.400000	1399.976095
1.600000	1420.000431
1.500000	1440.007809
1.800000	1459.997990
2.200000	1479.970736
2.800000	1499.990568
3.500000	1519.992369
4.200000	1539.975901
4.700000	1560.005504
5.200000	1580.016234
5.700000	1600.007849
6.000000	1619.980108
6.500000	1639.997100
7.200000	1659.994124
8.200000	1679.970935
9.100000	1699.991427
9.800000	1719.991085
10.400000	1739.969667
11.200000	1759.990857
11.800000	1779.990341
12.600000	1799.967872
13.500000	1819.986923
14.200000	1839.983385
14.700000	1859.957008
15.100000	1879.971046
15.300000	1899.961600
15.300000	1919.991770
15.100000	1939.997805
14.800000	1959.979452
14.300000	1979.999578
13.900000	1999.994655
